two_theta,intensity
10,2.926
10.0204,2.915
10.0409,2.898
10.0613,2.889
10.0818,2.878
10.1022,2.84
10.1226,2.847
10.1431,2.847
10.1635,2.849
10.184,2.849
10.2044,2.859
10.2248,2.869
10.2453,2.87
10.2657,2.874
10.2862,2.873
10.3066,2.865
10.327,2.861
10.3475,2.867
10.3679,2.866
10.3884,2.853
10.4088,2.849
10.4293,2.848
10.4497,2.842
10.4701,2.849
10.4906,2.855
10.511,2.848
10.5315,2.84
10.5519,2.837
10.5723,2.835
10.5928,2.822
10.6132,2.843
10.6337,2.835
10.6541,2.839
10.6745,2.852
10.695,2.86
10.7154,2.865
10.7359,2.853
10.7563,2.84
10.7767,2.826
10.7972,2.823
10.8176,2.813
10.8381,2.821
10.8585,2.81
10.8789,2.802
10.8994,2.803
10.9198,2.809
10.9403,2.813
10.9607,2.823
10.9811,2.828
11.0016,2.821
11.022,2.813
11.0425,2.82
11.0629,2.828
11.0834,2.811
11.1038,2.805
11.1242,2.8
11.1447,2.809
11.1651,2.818
11.1856,2.808
11.206,2.805
11.2264,2.792
11.2469,2.786
11.2673,2.776
11.2878,2.782
11.3082,2.763
11.3286,2.774
11.3491,2.769
11.3695,2.775
11.39,2.786
11.4104,2.785
11.4308,2.794
11.4513,2.788
11.4717,2.79
11.4922,2.785
11.5126,2.784
11.533,2.791
11.5535,2.777
11.5739,2.765
11.5944,2.769
11.6148,2.768
11.6352,2.762
11.6557,2.751
11.6761,2.735
11.6966,2.726
11.717,2.711
11.7374,2.695
11.7579,2.689
11.7783,2.684
11.7988,2.683
11.8192,2.693
11.8397,2.688
11.8601,2.69
11.8805,2.689
11.901,2.694
11.9214,2.695
11.9419,2.686
11.9623,2.708
11.9827,2.709
12.0032,2.718
12.0236,2.724
12.0441,2.736
12.0645,2.738
12.0849,2.738
12.1054,2.725
12.1258,2.716
12.1463,2.723
12.1667,2.725
12.1871,2.726
12.2076,2.725
12.228,2.724
12.2485,2.732
12.2689,2.723
12.2893,2.725
12.3098,2.716
12.3302,2.722
12.3507,2.728
12.3711,2.724
12.3915,2.724
12.412,2.715
12.4324,2.715
12.4529,2.727
12.4733,2.719
12.4938,2.714
12.5142,2.703
12.5346,2.704
12.5551,2.682
12.5755,2.686
12.596,2.681
12.6164,2.678
12.6368,2.696
12.6573,2.69
12.6777,2.688
12.6982,2.694
12.7186,2.691
12.739,2.688
12.7595,2.688
12.7799,2.694
12.8004,2.704
12.8208,2.72
12.8412,2.711
12.8617,2.714
12.8821,2.713
12.9026,2.714
12.923,2.71
12.9434,2.697
12.9639,2.683
12.9843,2.672
13.0048,2.671
13.0252,2.67
13.0456,2.666
13.0661,2.67
13.0865,2.668
13.107,2.666
13.1274,2.664
13.1478,2.66
13.1683,2.663
13.1887,2.659
13.2092,2.657
13.2296,2.659
13.2501,2.672
13.2705,2.67
13.2909,2.678
13.3114,2.663
13.3318,2.658
13.3523,2.658
13.3727,2.651
13.3931,2.648
13.4136,2.636
13.434,2.625
13.4545,2.618
13.4749,2.613
13.4953,2.616
13.5158,2.622
13.5362,2.626
13.5567,2.634
13.5771,2.642
13.5975,2.636
13.618,2.632
13.6384,2.634
13.6589,2.63
13.6793,2.633
13.6997,2.643
13.7202,2.642
13.7406,2.649
13.7611,2.632
13.7815,2.619
13.8019,2.613
13.8224,2.616
13.8428,2.607
13.8633,2.603
13.8837,2.611
13.9042,2.603
13.9246,2.611
13.945,2.614
13.9655,2.617
13.9859,2.63
14.0064,2.641
14.0268,2.646
14.0472,2.634
14.0677,2.634
14.0881,2.621
14.1086,2.619
14.129,2.614
14.1494,2.614
14.1699,2.619
14.1903,2.615
14.2108,2.611
14.2312,2.608
14.2516,2.591
14.2721,2.58
14.2925,2.588
14.313,2.576
14.3334,2.575
14.3538,2.574
14.3743,2.581
14.3947,2.574
14.4152,2.59
14.4356,2.598
14.456,2.6
14.4765,2.604
14.4969,2.602
14.5174,2.594
14.5378,2.584
14.5582,2.598
14.5787,2.596
14.5991,2.614
14.6196,2.613
14.64,2.619
14.6605,2.632
14.6809,2.632
14.7013,2.633
14.7218,2.631
14.7422,2.617
14.7627,2.599
14.7831,2.592
14.8035,2.577
14.824,2.568
14.8444,2.558
14.8649,2.551
14.8853,2.541
14.9057,2.54
14.9262,2.531
14.9466,2.521
14.9671,2.515
14.9875,2.513
15.0079,2.513
15.0284,2.52
15.0488,2.534
15.0693,2.547
15.0897,2.559
15.1101,2.556
15.1306,2.575
15.151,2.577
15.1715,2.584
15.1919,2.587
15.2123,2.589
15.2328,2.582
15.2532,2.586
15.2737,2.588
15.2941,2.596
15.3146,2.6
15.335,2.592
15.3554,2.582
15.3759,2.58
15.3963,2.582
15.4168,2.582
15.4372,2.586
15.4576,2.592
15.4781,2.584
15.4985,2.587
15.519,2.582
15.5394,2.575
15.5598,2.568
15.5803,2.56
15.6007,2.55
15.6212,2.552
15.6416,2.54
15.662,2.538
15.6825,2.526
15.7029,2.535
15.7234,2.537
15.7438,2.54
15.7642,2.546
15.7847,2.552
15.8051,2.555
15.8256,2.565
15.846,2.573
15.8664,2.593
15.8869,2.596
15.9073,2.598
15.9278,2.593
15.9482,2.58
15.9686,2.579
15.9891,2.575
16.0095,2.56
16.03,2.557
16.0504,2.552
16.0709,2.552
16.0913,2.549
16.1117,2.546
16.1322,2.538
16.1526,2.532
16.1731,2.53
16.1935,2.538
16.2139,2.53
16.2344,2.526
16.2548,2.531
16.2753,2.536
16.2957,2.541
16.3161,2.552
16.3366,2.556
16.357,2.557
16.3775,2.553
16.3979,2.555
16.4183,2.548
16.4388,2.56
16.4592,2.572
16.4797,2.566
16.5001,2.569
16.5205,2.577
16.541,2.581
16.5614,2.577
16.5819,2.577
16.6023,2.578
16.6227,2.583
16.6432,2.581
16.6636,2.574
16.6841,2.572
16.7045,2.564
16.725,2.561
16.7454,2.561
16.7658,2.569
16.7863,2.572
16.8067,2.583
16.8272,2.582
16.8476,2.589
16.868,2.593
16.8885,2.597
16.9089,2.607
16.9294,2.618
16.9498,2.617
16.9702,2.615
16.9907,2.615
17.0111,2.614
17.0316,2.606
17.052,2.597
17.0724,2.594
17.0929,2.591
17.1133,2.579
17.1338,2.566
17.1542,2.558
17.1746,2.557
17.1951,2.549
17.2155,2.546
17.236,2.535
17.2564,2.541
17.2768,2.537
17.2973,2.538
17.3177,2.544
17.3382,2.559
17.3586,2.572
17.3791,2.582
17.3995,2.604
17.4199,2.613
17.4404,2.62
17.4608,2.631
17.4813,2.631
17.5017,2.635
17.5221,2.635
17.5426,2.642
17.563,2.644
17.5835,2.641
17.6039,2.642
17.6243,2.645
17.6448,2.648
17.6652,2.641
17.6857,2.628
17.7061,2.619
17.7265,2.614
17.747,2.624
17.7674,2.625
17.7879,2.625
17.8083,2.616
17.8287,2.618
17.8492,2.617
17.8696,2.614
17.8901,2.629
17.9105,2.638
17.9309,2.652
17.9514,2.669
17.9718,2.666
17.9923,2.692
18.0127,2.704
18.0331,2.718
18.0536,2.71
18.074,2.717
18.0945,2.732
18.1149,2.744
18.1354,2.739
18.1558,2.731
18.1762,2.73
18.1967,2.74
18.2171,2.744
18.2376,2.737
18.258,2.725
18.2784,2.711
18.2989,2.691
18.3193,2.688
18.3398,2.662
18.3602,2.663
18.3806,2.659
18.4011,2.659
18.4215,2.662
18.442,2.666
18.4624,2.664
18.4828,2.673
18.5033,2.657
18.5237,2.651
18.5442,2.649
18.5646,2.663
18.585,2.665
18.6055,2.658
18.6259,2.645
18.6464,2.654
18.6668,2.66
18.6872,2.669
18.7077,2.671
18.7281,2.666
18.7486,2.671
18.769,2.664
18.7895,2.657
18.8099,2.654
18.8303,2.647
18.8508,2.663
18.8712,2.671
18.8917,2.684
18.9121,2.697
18.9325,2.703
18.953,2.708
18.9734,2.708
18.9939,2.706
19.0143,2.714
19.0347,2.716
19.0552,2.711
19.0756,2.717
19.0961,2.719
19.1165,2.725
19.1369,2.731
19.1574,2.719
19.1778,2.728
19.1983,2.724
19.2187,2.715
19.2391,2.716
19.2596,2.718
19.28,2.716
19.3005,2.709
19.3209,2.705
19.3413,2.701
19.3618,2.706
19.3822,2.707
19.4027,2.709
19.4231,2.704
19.4435,2.709
19.464,2.71
19.4844,2.709
19.5049,2.714
19.5253,2.711
19.5458,2.721
19.5662,2.726
19.5866,2.716
19.6071,2.708
19.6275,2.705
19.648,2.701
19.6684,2.706
19.6888,2.691
19.7093,2.683
19.7297,2.679
19.7502,2.674
19.7706,2.661
19.791,2.656
19.8115,2.651
19.8319,2.655
19.8524,2.665
19.8728,2.656
19.8932,2.659
19.9137,2.658
19.9341,2.663
19.9546,2.665
19.975,2.666
19.9954,2.66
20.0159,2.656
20.0363,2.657
20.0568,2.655
20.0772,2.658
20.0976,2.653
20.1181,2.649
20.1385,2.642
20.159,2.632
20.1794,2.623
20.1999,2.616
20.2203,2.606
20.2407,2.608
20.2612,2.608
20.2816,2.611
20.3021,2.614
20.3225,2.617
20.3429,2.615
20.3634,2.605
20.3838,2.608
20.4043,2.602
20.4247,2.609
20.4451,2.609
20.4656,2.603
20.486,2.595
20.5065,2.598
20.5269,2.6
20.5473,2.599
20.5678,2.591
20.5882,2.589
20.6087,2.598
20.6291,2.597
20.6495,2.603
20.67,2.601
20.6904,2.594
20.7109,2.592
20.7313,2.607
20.7517,2.601
20.7722,2.605
20.7926,2.607
20.8131,2.594
20.8335,2.589
20.8539,2.584
20.8744,2.587
20.8948,2.598
20.9153,2.604
20.9357,2.601
20.9562,2.595
20.9766,2.591
20.997,2.586
21.0175,2.589
21.0379,2.592
21.0584,2.605
21.0788,2.615
21.0992,2.616
21.1197,2.614
21.1401,2.611
21.1606,2.604
21.181,2.6
21.2014,2.594
21.2219,2.599
21.2423,2.573
21.2628,2.576
21.2832,2.577
21.3036,2.575
21.3241,2.589
21.3445,2.594
21.365,2.602
21.3854,2.604
21.4058,2.61
21.4263,2.612
21.4467,2.612
21.4672,2.609
21.4876,2.605
21.508,2.608
21.5285,2.615
21.5489,2.618
21.5694,2.622
21.5898,2.619
21.6103,2.612
21.6307,2.607
21.6511,2.605
21.6716,2.598
21.692,2.597
21.7125,2.603
21.7329,2.596
21.7533,2.604
21.7738,2.61
21.7942,2.613
21.8147,2.609
21.8351,2.605
21.8555,2.6
21.876,2.595
21.8964,2.598
21.9169,2.584
21.9373,2.583
21.9577,2.577
21.9782,2.568
21.9986,2.563
22.0191,2.566
22.0395,2.557
22.0599,2.558
22.0804,2.547
22.1008,2.541
22.1213,2.542
22.1417,2.533
22.1621,2.531
22.1826,2.534
22.203,2.532
22.2235,2.527
22.2439,2.531
22.2643,2.544
22.2848,2.555
22.3052,2.559
22.3257,2.556
22.3461,2.554
22.3666,2.564
22.387,2.57
22.4074,2.578
22.4279,2.585
22.4483,2.584
22.4688,2.577
22.4892,2.57
22.5096,2.567
22.5301,2.563
22.5505,2.568
22.571,2.558
22.5914,2.552
22.6118,2.54
22.6323,2.533
22.6527,2.534
22.6732,2.529
22.6936,2.527
22.714,2.529
22.7345,2.54
22.7549,2.548
22.7754,2.553
22.7958,2.551
22.8162,2.545
22.8367,2.555
22.8571,2.576
22.8776,2.578
22.898,2.584
22.9184,2.576
22.9389,2.574
22.9593,2.561
22.9798,2.559
23.0002,2.554
23.0207,2.548
23.0411,2.543
23.0615,2.544
23.082,2.548
23.1024,2.548
23.1229,2.562
23.1433,2.559
23.1637,2.558
23.1842,2.569
23.2046,2.573
23.2251,2.582
23.2455,2.583
23.2659,2.585
23.2864,2.578
23.3068,2.568
23.3273,2.568
23.3477,2.572
23.3681,2.557
23.3886,2.545
23.409,2.529
23.4295,2.517
23.4499,2.508
23.4703,2.507
23.4908,2.502
23.5112,2.504
23.5317,2.52
23.5521,2.53
23.5725,2.534
23.593,2.542
23.6134,2.554
23.6339,2.552
23.6543,2.56
23.6747,2.561
23.6952,2.553
23.7156,2.548
23.7361,2.539
23.7565,2.541
23.777,2.534
23.7974,2.529
23.8178,2.531
23.8383,2.533
23.8587,2.529
23.8792,2.525
23.8996,2.534
23.92,2.535
23.9405,2.545
23.9609,2.553
23.9814,2.564
24.0018,2.569
24.0222,2.575
24.0427,2.569
24.0631,2.577
24.0836,2.581
24.104,2.579
24.1244,2.567
24.1449,2.562
24.1653,2.544
24.1858,2.535
24.2062,2.53
24.2266,2.519
24.2471,2.524
24.2675,2.511
24.288,2.51
24.3084,2.513
24.3288,2.516
24.3493,2.513
24.3697,2.519
24.3902,2.529
24.4106,2.525
24.4311,2.526
24.4515,2.533
24.4719,2.536
24.4924,2.543
24.5128,2.543
24.5333,2.541
24.5537,2.539
24.5741,2.543
24.5946,2.548
24.615,2.55
24.6355,2.548
24.6559,2.547
24.6763,2.546
24.6968,2.542
24.7172,2.538
24.7377,2.539
24.7581,2.536
24.7785,2.533
24.799,2.539
24.8194,2.539
24.8399,2.533
24.8603,2.542
24.8807,2.536
24.9012,2.52
24.9216,2.513
24.9421,2.513
24.9625,2.508
24.9829,2.506
25.0034,2.507
25.0238,2.517
25.0443,2.529
25.0647,2.542
25.0851,2.557
25.1056,2.562
25.126,2.556
25.1465,2.574
25.1669,2.564
25.1874,2.565
25.2078,2.571
25.2282,2.576
25.2487,2.578
25.2691,2.572
25.2896,2.58
25.31,2.572
25.3304,2.568
25.3509,2.57
25.3713,2.56
25.3918,2.548
25.4122,2.558
25.4326,2.554
25.4531,2.558
25.4735,2.566
25.494,2.581
25.5144,2.586
25.5348,2.582
25.5553,2.585
25.5757,2.583
25.5962,2.572
25.6166,2.557
25.637,2.554
25.6575,2.535
25.6779,2.525
25.6984,2.518
25.7188,2.511
25.7392,2.494
25.7597,2.487
25.7801,2.485
25.8006,2.481
25.821,2.492
25.8415,2.492
25.8619,2.494
25.8823,2.499
25.9028,2.511
25.9232,2.517
25.9437,2.536
25.9641,2.551
25.9845,2.565
26.005,2.567
26.0254,2.572
26.0459,2.581
26.0663,2.569
26.0867,2.566
26.1072,2.563
26.1276,2.551
26.1481,2.547
26.1685,2.542
26.1889,2.541
26.2094,2.548
26.2298,2.538
26.2503,2.534
26.2707,2.531
26.2911,2.531
26.3116,2.537
26.332,2.523
26.3525,2.525
26.3729,2.524
26.3933,2.531
26.4138,2.54
26.4342,2.544
26.4547,2.54
26.4751,2.54
26.4955,2.549
26.516,2.561
26.5364,2.569
26.5569,2.569
26.5773,2.573
26.5978,2.569
26.6182,2.572
26.6386,2.578
26.6591,2.579
26.6795,2.569
26.7,2.569
26.7204,2.559
26.7408,2.556
26.7613,2.554
26.7817,2.553
26.8022,2.555
26.8226,2.542
26.843,2.534
26.8635,2.526
26.8839,2.527
26.9044,2.521
26.9248,2.515
26.9452,2.511
26.9657,2.515
26.9861,2.525
27.0066,2.527
27.027,2.525
27.0474,2.531
27.0679,2.533
27.0883,2.537
27.1088,2.545
27.1292,2.543
27.1496,2.543
27.1701,2.546
27.1905,2.554
27.211,2.562
27.2314,2.562
27.2519,2.562
27.2723,2.563
27.2927,2.561
27.3132,2.544
27.3336,2.541
27.3541,2.539
27.3745,2.536
27.3949,2.542
27.4154,2.54
27.4358,2.543
27.4563,2.546
27.4767,2.555
27.4971,2.552
27.5176,2.568
27.538,2.583
27.5585,2.578
27.5789,2.589
27.5993,2.602
27.6198,2.608
27.6402,2.613
27.6607,2.631
27.6811,2.635
27.7015,2.643
27.722,2.635
27.7424,2.633
27.7629,2.623
27.7833,2.614
27.8037,2.608
27.8242,2.614
27.8446,2.605
27.8651,2.598
27.8855,2.597
27.9059,2.581
27.9264,2.579
27.9468,2.566
27.9673,2.556
27.9877,2.545
28.0082,2.555
28.0286,2.539
28.049,2.529
28.0695,2.534
28.0899,2.527
28.1104,2.529
28.1308,2.519
28.1512,2.532
28.1717,2.527
28.1921,2.524
28.2126,2.512
28.233,2.515
28.2534,2.504
28.2739,2.513
28.2943,2.508
28.3148,2.505
28.3352,2.487
28.3556,2.489
28.3761,2.485
28.3965,2.485
28.417,2.483
28.4374,2.472
28.4578,2.478
28.4783,2.479
28.4987,2.482
28.5192,2.477
28.5396,2.487
28.56,2.493
28.5805,2.501
28.6009,2.516
28.6214,2.522
28.6418,2.542
28.6623,2.537
28.6827,2.545
28.7031,2.55
28.7236,2.571
28.744,2.572
28.7645,2.589
28.7849,2.597
28.8053,2.619
28.8258,2.629
28.8462,2.649
28.8667,2.655
28.8871,2.655
28.9075,2.664
28.928,2.678
28.9484,2.692
28.9689,2.685
28.9893,2.695
29.0097,2.704
29.0302,2.706
29.0506,2.698
29.0711,2.688
29.0915,2.681
29.1119,2.673
29.1324,2.653
29.1528,2.63
29.1733,2.629
29.1937,2.622
29.2141,2.616
29.2346,2.605
29.255,2.599
29.2755,2.595
29.2959,2.596
29.3164,2.576
29.3368,2.571
29.3572,2.564
29.3777,2.556
29.3981,2.564
29.4186,2.565
29.439,2.569
29.4594,2.57
29.4799,2.575
29.5003,2.571
29.5208,2.567
29.5412,2.558
29.5616,2.558
29.5821,2.569
29.6025,2.568
29.623,2.568
29.6434,2.562
29.6638,2.559
29.6843,2.549
29.7047,2.547
29.7252,2.541
29.7456,2.528
29.766,2.522
29.7865,2.521
29.8069,2.511
29.8274,2.512
29.8478,2.504
29.8682,2.499
29.8887,2.502
29.9091,2.514
29.9296,2.513
29.95,2.512
29.9704,2.504
29.9909,2.508
30.0113,2.517
30.0318,2.519
30.0522,2.532
30.0727,2.537
30.0931,2.536
30.1135,2.54
30.134,2.532
30.1544,2.536
30.1749,2.534
30.1953,2.546
30.2157,2.537
30.2362,2.532
30.2566,2.527
30.2771,2.536
30.2975,2.537
30.3179,2.536
30.3384,2.527
30.3588,2.537
30.3793,2.548
30.3997,2.552
30.4201,2.542
30.4406,2.547
30.461,2.537
30.4815,2.547
30.5019,2.555
30.5223,2.557
30.5428,2.555
30.5632,2.545
30.5837,2.539
30.6041,2.533
30.6245,2.532
30.645,2.527
30.6654,2.523
30.6859,2.524
30.7063,2.518
30.7268,2.511
30.7472,2.51
30.7676,2.522
30.7881,2.519
30.8085,2.523
30.829,2.514
30.8494,2.522
30.8698,2.511
30.8903,2.51
30.9107,2.509
30.9312,2.509
30.9516,2.518
30.972,2.539
30.9925,2.541
31.0129,2.543
31.0334,2.544
31.0538,2.551
31.0742,2.55
31.0947,2.559
31.1151,2.568
31.1356,2.574
31.156,2.58
31.1764,2.579
31.1969,2.582
31.2173,2.575
31.2378,2.578
31.2582,2.584
31.2786,2.581
31.2991,2.578
31.3195,2.558
31.34,2.548
31.3604,2.543
31.3808,2.539
31.4013,2.54
31.4217,2.549
31.4422,2.565
31.4626,2.563
31.4831,2.554
31.5035,2.558
31.5239,2.566
31.5444,2.567
31.5648,2.563
31.5853,2.569
31.6057,2.564
31.6261,2.568
31.6466,2.559
31.667,2.566
31.6875,2.56
31.7079,2.567
31.7283,2.577
31.7488,2.578
31.7692,2.581
31.7897,2.578
31.8101,2.569
31.8305,2.573
31.851,2.582
31.8714,2.581
31.8919,2.6
31.9123,2.602
31.9327,2.594
31.9532,2.579
31.9736,2.586
31.9941,2.589
32.0145,2.591
32.0349,2.587
32.0554,2.577
32.0758,2.573
32.0963,2.566
32.1167,2.57
32.1372,2.577
32.1576,2.593
32.178,2.595
32.1985,2.607
32.2189,2.611
32.2394,2.62
32.2598,2.637
32.2802,2.652
32.3007,2.659
32.3211,2.679
32.3416,2.69
32.362,2.707
32.3824,2.729
32.4029,2.731
32.4233,2.744
32.4438,2.75
32.4642,2.766
32.4846,2.77
32.5051,2.778
32.5255,2.773
32.546,2.766
32.5664,2.765
32.5868,2.765
32.6073,2.754
32.6277,2.758
32.6482,2.758
32.6686,2.755
32.689,2.754
32.7095,2.746
32.7299,2.735
32.7504,2.731
32.7708,2.725
32.7912,2.723
32.8117,2.725
32.8321,2.728
32.8526,2.738
32.873,2.739
32.8935,2.735
32.9139,2.739
32.9343,2.736
32.9548,2.727
32.9752,2.726
32.9957,2.726
33.0161,2.717
33.0365,2.713
33.057,2.7
33.0774,2.692
33.0979,2.681
33.1183,2.684
33.1387,2.681
33.1592,2.665
33.1796,2.666
33.2001,2.648
33.2205,2.647
33.2409,2.647
33.2614,2.636
33.2818,2.634
33.3023,2.635
33.3227,2.627
33.3431,2.623
33.3636,2.622
33.384,2.615
33.4045,2.614
33.4249,2.604
33.4453,2.587
33.4658,2.602
33.4862,2.604
33.5067,2.594
33.5271,2.598
33.5476,2.596
33.568,2.598
33.5884,2.605
33.6089,2.601
33.6293,2.6
33.6498,2.597
33.6702,2.616
33.6906,2.612
33.7111,2.625
33.7315,2.613
33.752,2.606
33.7724,2.599
33.7928,2.602
33.8133,2.586
33.8337,2.589
33.8542,2.58
33.8746,2.575
33.895,2.577
33.9155,2.582
33.9359,2.589
33.9564,2.609
33.9768,2.603
33.9972,2.607
34.0177,2.625
34.0381,2.632
34.0586,2.633
34.079,2.646
34.0994,2.639
34.1199,2.638
34.1403,2.648
34.1608,2.654
34.1812,2.66
34.2016,2.662
34.2221,2.659
34.2425,2.653
34.263,2.643
34.2834,2.647
34.3039,2.634
34.3243,2.638
34.3447,2.639
34.3652,2.648
34.3856,2.654
34.4061,2.665
34.4265,2.669
34.4469,2.675
34.4674,2.666
34.4878,2.657
34.5083,2.668
34.5287,2.668
34.5491,2.665
34.5696,2.674
34.59,2.668
34.6105,2.678
34.6309,2.681
34.6513,2.68
34.6718,2.684
34.6922,2.694
34.7127,2.7
34.7331,2.699
34.7535,2.693
34.774,2.69
34.7944,2.689
34.8149,2.694
34.8353,2.692
34.8557,2.695
34.8762,2.696
34.8966,2.691
34.9171,2.68
34.9375,2.666
34.958,2.648
34.9784,2.641
34.9988,2.659
35.0193,2.656
35.0397,2.655
35.0602,2.657
35.0806,2.657
35.101,2.65
35.1215,2.646
35.1419,2.651
35.1624,2.66
35.1828,2.66
35.2032,2.671
35.2237,2.684
35.2441,2.686
35.2646,2.697
35.285,2.707
35.3054,2.713
35.3259,2.723
35.3463,2.737
35.3668,2.736
35.3872,2.724
35.4076,2.718
35.4281,2.712
35.4485,2.712
35.469,2.723
35.4894,2.716
35.5098,2.711
35.5303,2.708
35.5507,2.71
35.5712,2.703
35.5916,2.707
35.612,2.708
35.6325,2.717
35.6529,2.735
35.6734,2.745
35.6938,2.773
35.7143,2.793
35.7347,2.81
35.7551,2.839
35.7756,2.856
35.796,2.883
35.8165,2.885
35.8369,2.898
35.8573,2.903
35.8778,2.914
35.8982,2.928
35.9187,2.946
35.9391,2.962
35.9595,2.976
35.98,2.972
36.0004,3.003
36.0209,3.029
36.0413,3.048
36.0617,3.056
36.0822,3.069
36.1026,3.078
36.1231,3.102
36.1435,3.124
36.1639,3.129
36.1844,3.143
36.2048,3.157
36.2253,3.144
36.2457,3.139
36.2661,3.095
36.2866,3.081
36.307,3.045
36.3275,3.043
36.3479,3.025
36.3684,3
36.3888,2.971
36.4092,2.968
36.4297,2.943
36.4501,2.935
36.4706,2.93
36.491,2.937
36.5114,2.928
36.5319,2.912
36.5523,2.903
36.5728,2.904
36.5932,2.915
36.6136,2.916
36.6341,2.922
36.6545,2.924
36.675,2.931
36.6954,2.93
36.7158,2.907
36.7363,2.89
36.7567,2.875
36.7772,2.887
36.7976,2.875
36.818,2.894
36.8385,2.883
36.8589,2.868
36.8794,2.868
36.8998,2.868
36.9202,2.871
36.9407,2.878
36.9611,2.879
36.9816,2.869
37.002,2.856
37.0224,2.861
37.0429,2.868
37.0633,2.86
37.0838,2.856
37.1042,2.842
37.1247,2.846
37.1451,2.838
37.1655,2.827
37.186,2.814
37.2064,2.798
37.2269,2.788
37.2473,2.786
37.2677,2.788
37.2882,2.79
37.3086,2.794
37.3291,2.78
37.3495,2.775
37.3699,2.773
37.3904,2.776
37.4108,2.792
37.4313,2.796
37.4517,2.801
37.4721,2.797
37.4926,2.81
37.513,2.815
37.5335,2.814
37.5539,2.811
37.5743,2.817
37.5948,2.807
37.6152,2.812
37.6357,2.813
37.6561,2.801
37.6765,2.809
37.697,2.798
37.7174,2.802
37.7379,2.804
37.7583,2.807
37.7788,2.797
37.7992,2.788
37.8196,2.784
37.8401,2.78
37.8605,2.773
37.881,2.772
37.9014,2.78
37.9218,2.788
37.9423,2.781
37.9627,2.77
37.9832,2.763
38.0036,2.756
38.024,2.755
38.0445,2.747
38.0649,2.737
38.0854,2.732
38.1058,2.744
38.1262,2.74
38.1467,2.721
38.1671,2.722
38.1876,2.718
38.208,2.728
38.2284,2.715
38.2489,2.703
38.2693,2.691
38.2898,2.691
38.3102,2.694
38.3306,2.694
38.3511,2.686
38.3715,2.688
38.392,2.697
38.4124,2.685
38.4328,2.676
38.4533,2.668
38.4737,2.66
38.4942,2.659
38.5146,2.646
38.5351,2.642
38.5555,2.638
38.5759,2.636
38.5964,2.636
38.6168,2.619
38.6373,2.602
38.6577,2.598
38.6781,2.592
38.6986,2.587
38.719,2.585
38.7395,2.591
38.7599,2.596
38.7803,2.601
38.8008,2.602
38.8212,2.604
38.8417,2.604
38.8621,2.612
38.8825,2.617
38.903,2.615
38.9234,2.625
38.9439,2.614
38.9643,2.606
38.9847,2.611
39.0052,2.613
39.0256,2.615
39.0461,2.609
39.0665,2.613
39.0869,2.611
39.1074,2.595
39.1278,2.584
39.1483,2.578
39.1687,2.576
39.1892,2.579
39.2096,2.578
39.23,2.569
39.2505,2.562
39.2709,2.56
39.2914,2.552
39.3118,2.542
39.3322,2.532
39.3527,2.523
39.3731,2.514
39.3936,2.512
39.414,2.504
39.4344,2.493
39.4549,2.503
39.4753,2.518
39.4958,2.514
39.5162,2.516
39.5366,2.515
39.5571,2.519
39.5775,2.516
39.598,2.515
39.6184,2.516
39.6388,2.518
39.6593,2.526
39.6797,2.525
39.7002,2.53
39.7206,2.539
39.741,2.546
39.7615,2.539
39.7819,2.539
39.8024,2.549
39.8228,2.556
39.8432,2.558
39.8637,2.57
39.8841,2.583
39.9046,2.583
39.925,2.582
39.9455,2.588
39.9659,2.584
39.9863,2.579
40.0068,2.578
40.0272,2.572
40.0477,2.581
40.0681,2.576
40.0885,2.571
40.109,2.568
40.1294,2.57
40.1499,2.578
40.1703,2.57
40.1907,2.572
40.2112,2.573
40.2316,2.568
40.2521,2.56
40.2725,2.572
40.2929,2.568
40.3134,2.556
40.3338,2.558
40.3543,2.555
40.3747,2.545
40.3951,2.535
40.4156,2.525
40.436,2.523
40.4565,2.516
40.4769,2.514
40.4973,2.502
40.5178,2.494
40.5382,2.492
40.5587,2.481
40.5791,2.479
40.5996,2.476
40.62,2.474
40.6404,2.483
40.6609,2.48
40.6813,2.491
40.7018,2.496
40.7222,2.5
40.7426,2.498
40.7631,2.506
40.7835,2.51
40.804,2.519
40.8244,2.533
40.8448,2.542
40.8653,2.556
40.8857,2.552
40.9062,2.551
40.9266,2.544
40.947,2.545
40.9675,2.533
40.9879,2.533
41.0084,2.522
41.0288,2.511
41.0492,2.509
41.0697,2.504
41.0901,2.501
41.1106,2.5
41.131,2.505
41.1514,2.496
41.1719,2.496
41.1923,2.491
41.2128,2.492
41.2332,2.493
41.2537,2.499
41.2741,2.505
41.2945,2.513
41.315,2.52
41.3354,2.527
41.3559,2.524
41.3763,2.519
41.3967,2.524
41.4172,2.523
41.4376,2.533
41.4581,2.526
41.4785,2.538
41.4989,2.528
41.5194,2.529
41.5398,2.54
41.5603,2.54
41.5807,2.534
41.6011,2.523
41.6216,2.525
41.642,2.524
41.6625,2.522
41.6829,2.513
41.7033,2.505
41.7238,2.51
41.7442,2.507
41.7647,2.506
41.7851,2.501
41.8055,2.503
41.826,2.504
41.8464,2.509
41.8669,2.504
41.8873,2.503
41.9077,2.518
41.9282,2.513
41.9486,2.512
41.9691,2.503
41.9895,2.491
42.01,2.492
42.0304,2.499
42.0508,2.487
42.0713,2.485
42.0917,2.489
42.1122,2.503
42.1326,2.512
42.153,2.508
42.1735,2.502
42.1939,2.508
42.2144,2.515
42.2348,2.509
42.2552,2.513
42.2757,2.512
42.2961,2.524
42.3166,2.528
42.337,2.533
42.3574,2.535
42.3779,2.545
42.3983,2.546
42.4188,2.526
42.4392,2.519
42.4596,2.508
42.4801,2.507
42.5005,2.508
42.521,2.499
42.5414,2.487
42.5618,2.484
42.5823,2.476
42.6027,2.475
42.6232,2.465
42.6436,2.451
42.6641,2.432
42.6845,2.43
42.7049,2.423
42.7254,2.414
42.7458,2.41
42.7663,2.403
42.7867,2.416
42.8071,2.421
42.8276,2.433
42.848,2.441
42.8685,2.446
42.8889,2.447
42.9093,2.464
42.9298,2.474
42.9502,2.48
42.9707,2.483
42.9911,2.481
43.0115,2.479
43.032,2.476
43.0524,2.471
43.0729,2.461
43.0933,2.465
43.1137,2.455
43.1342,2.45
43.1546,2.442
43.1751,2.444
43.1955,2.441
43.2159,2.438
43.2364,2.437
43.2568,2.443
43.2773,2.447
43.2977,2.449
43.3181,2.452
43.3386,2.448
43.359,2.446
43.3795,2.452
43.3999,2.462
43.4204,2.448
43.4408,2.444
43.4612,2.45
43.4817,2.44
43.5021,2.442
43.5226,2.425
43.543,2.423
43.5634,2.418
43.5839,2.417
43.6043,2.414
43.6248,2.417
43.6452,2.421
43.6656,2.421
43.6861,2.423
43.7065,2.431
43.727,2.423
43.7474,2.426
43.7678,2.424
43.7883,2.425
43.8087,2.428
43.8292,2.43
43.8496,2.435
43.87,2.445
43.8905,2.454
43.9109,2.452
43.9314,2.469
43.9518,2.471
43.9722,2.465
43.9927,2.469
44.0131,2.458
44.0336,2.473
44.054,2.47
44.0745,2.47
44.0949,2.474
44.1153,2.48
44.1358,2.479
44.1562,2.484
44.1767,2.486
44.1971,2.481
44.2175,2.472
44.238,2.474
44.2584,2.48
44.2789,2.472
44.2993,2.475
44.3197,2.472
44.3402,2.471
44.3606,2.457
44.3811,2.462
44.4015,2.458
44.4219,2.464
44.4424,2.455
44.4628,2.452
44.4833,2.449
44.5037,2.443
44.5241,2.45
44.5446,2.453
44.565,2.456
44.5855,2.455
44.6059,2.465
44.6263,2.466
44.6468,2.47
44.6672,2.462
44.6877,2.455
44.7081,2.458
44.7285,2.458
44.749,2.448
44.7694,2.436
44.7899,2.433
44.8103,2.428
44.8308,2.418
44.8512,2.413
44.8716,2.415
44.8921,2.413
44.9125,2.411
44.933,2.406
44.9534,2.406
44.9738,2.402
44.9943,2.405
45.0147,2.407
45.0352,2.412
45.0556,2.407
45.076,2.409
45.0965,2.42
45.1169,2.416
45.1374,2.409
45.1578,2.404
45.1782,2.405
45.1987,2.4
45.2191,2.397
45.2396,2.396
45.26,2.4
45.2804,2.397
45.3009,2.398
45.3213,2.394
45.3418,2.396
45.3622,2.4
45.3826,2.413
45.4031,2.423
45.4235,2.425
45.444,2.431
45.4644,2.432
45.4849,2.442
45.5053,2.443
45.5257,2.444
45.5462,2.446
45.5666,2.454
45.5871,2.454
45.6075,2.445
45.6279,2.437
45.6484,2.426
45.6688,2.418
45.6893,2.412
45.7097,2.414
45.7301,2.41
45.7506,2.405
45.771,2.406
45.7915,2.415
45.8119,2.416
45.8323,2.422
45.8528,2.444
45.8732,2.445
45.8937,2.446
45.9141,2.449
45.9345,2.447
45.955,2.456
45.9754,2.452
45.9959,2.447
46.0163,2.443
46.0367,2.443
46.0572,2.438
46.0776,2.428
46.0981,2.413
46.1185,2.399
46.1389,2.386
46.1594,2.388
46.1798,2.385
46.2003,2.388
46.2207,2.392
46.2412,2.388
46.2616,2.39
46.282,2.4
46.3025,2.407
46.3229,2.414
46.3434,2.42
46.3638,2.409
46.3842,2.411
46.4047,2.417
46.4251,2.416
46.4456,2.416
46.466,2.412
46.4864,2.409
46.5069,2.403
46.5273,2.403
46.5478,2.393
46.5682,2.397
46.5886,2.392
46.6091,2.391
46.6295,2.393
46.65,2.392
46.6704,2.391
46.6908,2.397
46.7113,2.399
46.7317,2.39
46.7522,2.394
46.7726,2.409
46.793,2.406
46.8135,2.395
46.8339,2.393
46.8544,2.385
46.8748,2.395
46.8953,2.399
46.9157,2.406
46.9361,2.396
46.9566,2.399
46.977,2.396
46.9975,2.392
47.0179,2.397
47.0383,2.391
47.0588,2.405
47.0792,2.4
47.0997,2.407
47.1201,2.421
47.1405,2.418
47.161,2.427
47.1814,2.419
47.2019,2.425
47.2223,2.427
47.2427,2.428
47.2632,2.435
47.2836,2.423
47.3041,2.421
47.3245,2.415
47.3449,2.412
47.3654,2.409
47.3858,2.406
47.4063,2.404
47.4267,2.384
47.4471,2.383
47.4676,2.377
47.488,2.371
47.5085,2.373
47.5289,2.373
47.5493,2.375
47.5698,2.372
47.5902,2.385
47.6107,2.391
47.6311,2.388
47.6516,2.39
47.672,2.394
47.6924,2.405
47.7129,2.413
47.7333,2.415
47.7538,2.411
47.7742,2.407
47.7946,2.409
47.8151,2.408
47.8355,2.409
47.856,2.407
47.8764,2.413
47.8968,2.415
47.9173,2.408
47.9377,2.405
47.9582,2.415
47.9786,2.417
47.999,2.417
48.0195,2.417
48.0399,2.41
48.0604,2.409
48.0808,2.409
48.1012,2.411
48.1217,2.411
48.1421,2.406
48.1626,2.411
48.183,2.408
48.2034,2.415
48.2239,2.416
48.2443,2.415
48.2648,2.428
48.2852,2.44
48.3057,2.437
48.3261,2.432
48.3465,2.432
48.367,2.437
48.3874,2.438
48.4079,2.426
48.4283,2.427
48.4487,2.436
48.4692,2.425
48.4896,2.418
48.5101,2.408
48.5305,2.394
48.5509,2.389
48.5714,2.377
48.5918,2.378
48.6123,2.377
48.6327,2.371
48.6531,2.379
48.6736,2.383
48.694,2.395
48.7145,2.395
48.7349,2.402
48.7553,2.405
48.7758,2.399
48.7962,2.389
48.8167,2.393
48.8371,2.403
48.8575,2.41
48.878,2.406
48.8984,2.399
48.9189,2.397
48.9393,2.397
48.9597,2.387
48.9802,2.381
49.0006,2.379
49.0211,2.385
49.0415,2.386
49.062,2.382
49.0824,2.388
49.1028,2.393
49.1233,2.393
49.1437,2.405
49.1642,2.404
49.1846,2.411
49.205,2.416
49.2255,2.421
49.2459,2.422
49.2664,2.428
49.2868,2.43
49.3072,2.437
49.3277,2.436
49.3481,2.431
49.3686,2.426
49.389,2.415
49.4094,2.409
49.4299,2.413
49.4503,2.406
49.4708,2.419
49.4912,2.423
49.5116,2.427
49.5321,2.417
49.5525,2.411
49.573,2.414
49.5934,2.41
49.6138,2.411
49.6343,2.409
49.6547,2.408
49.6752,2.411
49.6956,2.405
49.7161,2.402
49.7365,2.417
49.7569,2.424
49.7774,2.417
49.7978,2.428
49.8183,2.43
49.8387,2.431
49.8591,2.42
49.8796,2.424
49.9,2.424
49.9205,2.43
49.9409,2.441
49.9613,2.451
49.9818,2.448
50.0022,2.452
50.0227,2.451
50.0431,2.463
50.0635,2.464
50.084,2.46
50.1044,2.46
50.1249,2.454
50.1453,2.452
50.1657,2.437
50.1862,2.445
50.2066,2.45
50.2271,2.453
50.2475,2.444
50.2679,2.437
50.2884,2.433
50.3088,2.426
50.3293,2.421
50.3497,2.417
50.3701,2.425
50.3906,2.426
50.411,2.435
50.4315,2.447
50.4519,2.441
50.4724,2.446
50.4928,2.451
50.5132,2.452
50.5337,2.455
50.5541,2.447
50.5746,2.442
50.595,2.426
50.6154,2.431
50.6359,2.434
50.6563,2.434
50.6768,2.443
50.6972,2.434
50.7176,2.432
50.7381,2.432
50.7585,2.43
50.779,2.438
50.7994,2.45
50.8198,2.454
50.8403,2.463
50.8607,2.473
50.8812,2.482
50.9016,2.482
50.922,2.482
50.9425,2.48
50.9629,2.49
50.9834,2.486
51.0038,2.483
51.0242,2.477
51.0447,2.475
51.0651,2.46
51.0856,2.461
51.106,2.472
51.1265,2.464
51.1469,2.459
51.1673,2.453
51.1878,2.452
51.2082,2.451
51.2287,2.457
51.2491,2.462
51.2695,2.471
51.29,2.469
51.3104,2.478
51.3309,2.486
51.3513,2.491
51.3717,2.492
51.3922,2.484
51.4126,2.481
51.4331,2.473
51.4535,2.462
51.4739,2.449
51.4944,2.439
51.5148,2.429
51.5353,2.426
51.5557,2.42
51.5761,2.414
51.5966,2.402
51.617,2.397
51.6375,2.396
51.6579,2.398
51.6783,2.401
51.6988,2.4
51.7192,2.401
51.7397,2.398
51.7601,2.395
51.7805,2.391
51.801,2.396
51.8214,2.395
51.8419,2.404
51.8623,2.4
51.8828,2.393
51.9032,2.392
51.9236,2.394
51.9441,2.401
51.9645,2.408
51.985,2.411
52.0054,2.419
52.0258,2.433
52.0463,2.433
52.0667,2.418
52.0872,2.413
52.1076,2.414
52.128,2.407
52.1485,2.398
52.1689,2.391
52.1894,2.381
52.2098,2.37
52.2302,2.366
52.2507,2.357
52.2711,2.347
52.2916,2.354
52.312,2.356
52.3324,2.36
52.3529,2.363
52.3733,2.368
52.3938,2.372
52.4142,2.384
52.4346,2.393
52.4551,2.394
52.4755,2.4
52.496,2.401
52.5164,2.407
52.5369,2.4
52.5573,2.4
52.5777,2.412
52.5982,2.418
52.6186,2.41
52.6391,2.408
52.6595,2.408
52.6799,2.405
52.7004,2.407
52.7208,2.416
52.7413,2.416
52.7617,2.413
52.7821,2.415
52.8026,2.407
52.823,2.403
52.8435,2.41
52.8639,2.402
52.8843,2.4
52.9048,2.405
52.9252,2.398
52.9457,2.394
52.9661,2.389
52.9865,2.389
53.007,2.394
53.0274,2.398
53.0479,2.406
53.0683,2.405
53.0887,2.403
53.1092,2.405
53.1296,2.414
53.1501,2.42
53.1705,2.424
53.191,2.438
53.2114,2.45
53.2318,2.45
53.2523,2.441
53.2727,2.448
53.2932,2.449
53.3136,2.454
53.334,2.462
53.3545,2.446
53.3749,2.444
53.3954,2.444
53.4158,2.44
53.4362,2.445
53.4567,2.445
53.4771,2.452
53.4976,2.448
53.518,2.444
53.5384,2.443
53.5589,2.442
53.5793,2.449
53.5998,2.449
53.6202,2.447
53.6406,2.441
53.6611,2.44
53.6815,2.444
53.702,2.433
53.7224,2.428
53.7428,2.427
53.7633,2.423
53.7837,2.425
53.8042,2.419
53.8246,2.419
53.845,2.408
53.8655,2.42
53.8859,2.431
53.9064,2.432
53.9268,2.447
53.9473,2.455
53.9677,2.462
53.9881,2.46
54.0086,2.466
54.029,2.471
54.0495,2.468
54.0699,2.47
54.0903,2.461
54.1108,2.456
54.1312,2.46
54.1517,2.456
54.1721,2.44
54.1925,2.429
54.213,2.413
54.2334,2.406
54.2539,2.392
54.2743,2.395
54.2947,2.379
54.3152,2.379
54.3356,2.373
54.3561,2.376
54.3765,2.379
54.3969,2.38
54.4174,2.391
54.4378,2.384
54.4583,2.393
54.4787,2.392
54.4991,2.396
54.5196,2.392
54.54,2.39
54.5605,2.401
54.5809,2.402
54.6014,2.411
54.6218,2.418
54.6422,2.412
54.6627,2.417
54.6831,2.419
54.7036,2.416
54.724,2.427
54.7444,2.429
54.7649,2.429
54.7853,2.433
54.8058,2.431
54.8262,2.43
54.8466,2.432
54.8671,2.433
54.8875,2.436
54.908,2.44
54.9284,2.438
54.9488,2.441
54.9693,2.432
54.9897,2.426
55.0102,2.419
55.0306,2.417
55.051,2.413
55.0715,2.41
55.0919,2.403
55.1124,2.398
55.1328,2.4
55.1532,2.404
55.1737,2.397
55.1941,2.393
55.2146,2.404
55.235,2.404
55.2554,2.401
55.2759,2.404
55.2963,2.403
55.3168,2.407
55.3372,2.414
55.3577,2.418
55.3781,2.428
55.3985,2.428
55.419,2.422
55.4394,2.422
55.4599,2.419
55.4803,2.41
55.5007,2.412
55.5212,2.422
55.5416,2.421
55.5621,2.422
55.5825,2.411
55.6029,2.418
55.6234,2.42
55.6438,2.418
55.6643,2.419
55.6847,2.43
55.7051,2.437
55.7256,2.427
55.746,2.423
55.7665,2.416
55.7869,2.414
55.8073,2.413
55.8278,2.409
55.8482,2.405
55.8687,2.402
55.8891,2.394
55.9095,2.386
55.93,2.383
55.9504,2.383
55.9709,2.385
55.9913,2.393
56.0118,2.393
56.0322,2.392
56.0526,2.392
56.0731,2.395
56.0935,2.402
56.114,2.4
56.1344,2.403
56.1548,2.41
56.1753,2.421
56.1957,2.419
56.2162,2.418
56.2366,2.415
56.257,2.413
56.2775,2.418
56.2979,2.419
56.3184,2.411
56.3388,2.411
56.3592,2.406
56.3797,2.399
56.4001,2.391
56.4206,2.399
56.441,2.401
56.4614,2.394
56.4819,2.388
56.5023,2.381
56.5228,2.381
56.5432,2.381
56.5636,2.374
56.5841,2.369
56.6045,2.369
56.625,2.375
56.6454,2.38
56.6658,2.385
56.6863,2.386
56.7067,2.382
56.7272,2.385
56.7476,2.384
56.7681,2.382
56.7885,2.376
56.8089,2.379
56.8294,2.377
56.8498,2.372
56.8703,2.37
56.8907,2.367
56.9111,2.369
56.9316,2.354
56.952,2.345
56.9725,2.341
56.9929,2.344
57.0133,2.343
57.0338,2.346
57.0542,2.347
57.0747,2.352
57.0951,2.353
57.1155,2.358
57.136,2.374
57.1564,2.381
57.1769,2.392
57.1973,2.404
57.2177,2.409
57.2382,2.409
57.2586,2.41
57.2791,2.419
57.2995,2.423
57.3199,2.414
57.3404,2.408
57.3608,2.406
57.3813,2.398
57.4017,2.389
57.4222,2.381
57.4426,2.382
57.463,2.375
57.4835,2.375
57.5039,2.372
57.5244,2.365
57.5448,2.364
57.5652,2.358
57.5857,2.352
57.6061,2.36
57.6266,2.369
57.647,2.374
57.6674,2.378
57.6879,2.382
57.7083,2.374
57.7288,2.382
57.7492,2.382
57.7696,2.381
57.7901,2.368
57.8105,2.361
57.831,2.365
57.8514,2.356
57.8718,2.349
57.8923,2.344
57.9127,2.346
57.9332,2.342
57.9536,2.337
57.974,2.337
57.9945,2.342
58.0149,2.338
58.0354,2.346
58.0558,2.348
58.0762,2.353
58.0967,2.365
58.1171,2.364
58.1376,2.367
58.158,2.368
58.1785,2.38
58.1989,2.386
58.2193,2.397
58.2398,2.397
58.2602,2.397
58.2807,2.405
58.3011,2.415
58.3215,2.416
58.342,2.405
58.3624,2.409
58.3829,2.416
58.4033,2.423
58.4237,2.425
58.4442,2.43
58.4646,2.437
58.4851,2.443
58.5055,2.445
58.5259,2.445
58.5464,2.448
58.5668,2.436
58.5873,2.426
58.6077,2.423
58.6281,2.418
58.6486,2.415
58.669,2.418
58.6895,2.411
58.7099,2.409
58.7303,2.398
58.7508,2.393
58.7712,2.39
58.7917,2.378
58.8121,2.36
58.8326,2.359
58.853,2.364
58.8734,2.368
58.8939,2.372
58.9143,2.365
58.9348,2.373
58.9552,2.378
58.9756,2.38
58.9961,2.387
59.0165,2.389
59.037,2.39
59.0574,2.381
59.0778,2.386
59.0983,2.388
59.1187,2.382
59.1392,2.383
59.1596,2.383
59.18,2.38
59.2005,2.381
59.2209,2.377
59.2414,2.37
59.2618,2.364
59.2822,2.363
59.3027,2.361
59.3231,2.368
59.3436,2.37
59.364,2.367
59.3844,2.365
59.4049,2.359
59.4253,2.369
59.4458,2.371
59.4662,2.378
59.4866,2.378
59.5071,2.378
59.5275,2.367
59.548,2.366
59.5684,2.369
59.5889,2.368
59.6093,2.366
59.6297,2.365
59.6502,2.367
59.6706,2.375
59.6911,2.376
59.7115,2.378
59.7319,2.379
59.7524,2.392
59.7728,2.394
59.7933,2.392
59.8137,2.394
59.8341,2.405
59.8546,2.412
59.875,2.414
59.8955,2.412
59.9159,2.413
59.9363,2.409
59.9568,2.41
59.9772,2.412
59.9977,2.416
60.0181,2.417
60.0385,2.426
60.059,2.431
60.0794,2.427
60.0999,2.425
60.1203,2.43
60.1407,2.426
60.1612,2.426
60.1816,2.425
60.2021,2.43
60.2225,2.436
60.243,2.434
60.2634,2.426
60.2838,2.435
60.3043,2.44
60.3247,2.444
60.3452,2.435
60.3656,2.415
60.386,2.399
60.4065,2.386
60.4269,2.384
60.4474,2.383
60.4678,2.379
60.4882,2.38
60.5087,2.373
60.5291,2.364
60.5496,2.354
60.57,2.34
60.5904,2.337
60.6109,2.331
60.6313,2.323
60.6518,2.323
60.6722,2.327
60.6926,2.327
60.7131,2.331
60.7335,2.325
60.754,2.33
60.7744,2.33
60.7948,2.327
60.8153,2.32
60.8357,2.317
60.8562,2.31
60.8766,2.311
60.897,2.313
60.9175,2.324
60.9379,2.317
60.9584,2.322
60.9788,2.318
60.9993,2.31
61.0197,2.311
61.0401,2.316
61.0606,2.312
61.081,2.317
61.1015,2.318
61.1219,2.324
61.1423,2.328
61.1628,2.323
61.1832,2.321
61.2037,2.318
61.2241,2.318
61.2445,2.318
61.265,2.316
61.2854,2.317
61.3059,2.32
61.3263,2.33
61.3467,2.33
61.3672,2.334
61.3876,2.34
61.4081,2.339
61.4285,2.327
61.4489,2.327
61.4694,2.322
61.4898,2.329
61.5103,2.329
61.5307,2.326
61.5511,2.311
61.5716,2.314
61.592,2.31
61.6125,2.305
61.6329,2.293
61.6534,2.286
61.6738,2.289
61.6942,2.289
61.7147,2.293
61.7351,2.288
61.7556,2.288
61.776,2.291
61.7964,2.292
61.8169,2.292
61.8373,2.29
61.8578,2.289
61.8782,2.292
61.8986,2.288
61.9191,2.295
61.9395,2.303
61.96,2.307
61.9804,2.302
62.0008,2.301
62.0213,2.301
62.0417,2.297
62.0622,2.3
62.0826,2.298
62.103,2.297
62.1235,2.297
62.1439,2.3
62.1644,2.301
62.1848,2.31
62.2052,2.305
62.2257,2.291
62.2461,2.297
62.2666,2.296
62.287,2.291
62.3074,2.293
62.3279,2.291
62.3483,2.295
62.3688,2.304
62.3892,2.303
62.4097,2.315
62.4301,2.308
62.4505,2.305
62.471,2.302
62.4914,2.308
62.5119,2.303
62.5323,2.305
62.5527,2.303
62.5732,2.306
62.5936,2.306
62.6141,2.305
62.6345,2.303
62.6549,2.304
62.6754,2.302
62.6958,2.296
62.7163,2.291
62.7367,2.299
62.7571,2.296
62.7776,2.299
62.798,2.302
62.8185,2.3
62.8389,2.306
62.8593,2.305
62.8798,2.305
62.9002,2.311
62.9207,2.306
62.9411,2.305
62.9615,2.298
62.982,2.296
63.0024,2.297
63.0229,2.298
63.0433,2.29
63.0638,2.291
63.0842,2.29
63.1046,2.283
63.1251,2.283
63.1455,2.279
63.166,2.276
63.1864,2.282
63.2068,2.281
63.2273,2.281
63.2477,2.286
63.2682,2.289
63.2886,2.299
63.309,2.294
63.3295,2.296
63.3499,2.297
63.3704,2.302
63.3908,2.297
63.4112,2.293
63.4317,2.294
63.4521,2.295
63.4726,2.298
63.493,2.302
63.5134,2.294
63.5339,2.29
63.5543,2.29
63.5748,2.294
63.5952,2.296
63.6156,2.299
63.6361,2.3
63.6565,2.307
63.677,2.309
63.6974,2.315
63.7178,2.317
63.7383,2.32
63.7587,2.321
63.7792,2.319
63.7996,2.312
63.8201,2.312
63.8405,2.308
63.8609,2.304
63.8814,2.302
63.9018,2.306
63.9223,2.312
63.9427,2.302
63.9631,2.297
63.9836,2.295
64.004,2.294
64.0245,2.301
64.0449,2.306
64.0653,2.314
64.0858,2.317
64.1062,2.325
64.1267,2.329
64.1471,2.334
64.1675,2.333
64.188,2.335
64.2084,2.332
64.2289,2.327
64.2493,2.324
64.2697,2.32
64.2902,2.321
64.3106,2.323
64.3311,2.325
64.3515,2.328
64.3719,2.332
64.3924,2.333
64.4128,2.331
64.4333,2.329
64.4537,2.334
64.4742,2.34
64.4946,2.347
64.515,2.348
64.5355,2.349
64.5559,2.353
64.5764,2.361
64.5968,2.364
64.6172,2.356
64.6377,2.362
64.6581,2.353
64.6786,2.349
64.699,2.342
64.7194,2.335
64.7399,2.338
64.7603,2.346
64.7808,2.35
64.8012,2.358
64.8216,2.368
64.8421,2.37
64.8625,2.375
64.883,2.38
64.9034,2.38
64.9238,2.394
64.9443,2.393
64.9647,2.392
64.9852,2.393
65.0056,2.395
65.026,2.4
65.0465,2.396
65.0669,2.392
65.0874,2.379
65.1078,2.375
65.1283,2.37
65.1487,2.355
65.1691,2.346
65.1896,2.337
65.21,2.334
65.2305,2.336
65.2509,2.334
65.2713,2.33
65.2918,2.325
65.3122,2.33
65.3327,2.328
65.3531,2.332
65.3735,2.34
65.394,2.343
65.4144,2.352
65.4349,2.344
65.4553,2.345
65.4757,2.346
65.4962,2.344
65.5166,2.343
65.5371,2.336
65.5575,2.329
65.5779,2.33
65.5984,2.333
65.6188,2.331
65.6393,2.332
65.6597,2.333
65.6801,2.336
65.7006,2.334
65.721,2.338
65.7415,2.341
65.7619,2.339
65.7823,2.339
65.8028,2.349
65.8232,2.35
65.8437,2.345
65.8641,2.348
65.8846,2.337
65.905,2.333
65.9254,2.326
65.9459,2.326
65.9663,2.318
65.9868,2.32
66.0072,2.313
66.0276,2.312
66.0481,2.318
66.0685,2.328
66.089,2.328
66.1094,2.333
66.1298,2.337
66.1503,2.335
66.1707,2.333
66.1912,2.33
66.2116,2.329
66.232,2.324
66.2525,2.32
66.2729,2.321
66.2934,2.312
66.3138,2.307
66.3342,2.299
66.3547,2.299
66.3751,2.291
66.3956,2.3
66.416,2.3
66.4364,2.307
66.4569,2.304
66.4773,2.303
66.4978,2.308
66.5182,2.317
66.5387,2.326
66.5591,2.323
66.5795,2.316
66.6,2.316
66.6204,2.311
66.6409,2.303
66.6613,2.301
66.6817,2.293
66.7022,2.286
66.7226,2.279
66.7431,2.28
66.7635,2.28
66.7839,2.269
66.8044,2.284
66.8248,2.282
66.8453,2.288
66.8657,2.285
66.8861,2.286
66.9066,2.286
66.927,2.283
66.9475,2.285
66.9679,2.287
66.9883,2.296
67.0088,2.298
67.0292,2.305
67.0497,2.307
67.0701,2.31
67.0905,2.318
67.111,2.313
67.1314,2.312
67.1519,2.311
67.1723,2.296
67.1927,2.293
67.2132,2.291
67.2336,2.291
67.2541,2.285
67.2745,2.285
67.295,2.287
67.3154,2.277
67.3358,2.27
67.3563,2.262
67.3767,2.255
67.3972,2.261
67.4176,2.256
67.438,2.265
67.4585,2.27
67.4789,2.273
67.4994,2.283
67.5198,2.294
67.5402,2.302
67.5607,2.301
67.5811,2.298
67.6016,2.29
67.622,2.288
67.6424,2.281
67.6629,2.267
67.6833,2.263
67.7038,2.261
67.7242,2.259
67.7446,2.256
67.7651,2.264
67.7855,2.257
67.806,2.263
67.8264,2.26
67.8468,2.264
67.8673,2.268
67.8877,2.271
67.9082,2.268
67.9286,2.27
67.9491,2.273
67.9695,2.274
67.9899,2.276
68.0104,2.275
68.0308,2.27
68.0513,2.26
68.0717,2.256
68.0921,2.253
68.1126,2.251
68.133,2.251
68.1535,2.245
68.1739,2.248
68.1943,2.249
68.2148,2.255
68.2352,2.253
68.2557,2.262
68.2761,2.259
68.2965,2.261
68.317,2.262
68.3374,2.264
68.3579,2.266
68.3783,2.257
68.3987,2.254
68.4192,2.254
68.4396,2.25
68.4601,2.243
68.4805,2.243
68.5009,2.236
68.5214,2.234
68.5418,2.229
68.5623,2.229
68.5827,2.224
68.6031,2.223
68.6236,2.227
68.644,2.226
68.6645,2.23
68.6849,2.228
68.7054,2.235
68.7258,2.235
68.7462,2.241
68.7667,2.241
68.7871,2.242
68.8076,2.245
68.828,2.243
68.8484,2.246
68.8689,2.244
68.8893,2.245
68.9098,2.252
68.9302,2.255
68.9506,2.258
68.9711,2.261
68.9915,2.253
69.012,2.252
69.0324,2.239
69.0528,2.238
69.0733,2.236
69.0937,2.239
69.1142,2.244
69.1346,2.242
69.155,2.238
69.1755,2.241
69.1959,2.24
69.2164,2.238
69.2368,2.241
69.2572,2.234
69.2777,2.234
69.2981,2.234
69.3186,2.233
69.339,2.236
69.3595,2.235
69.3799,2.232
69.4003,2.24
69.4208,2.237
69.4412,2.236
69.4617,2.234
69.4821,2.227
69.5025,2.221
69.523,2.219
69.5434,2.222
69.5639,2.214
69.5843,2.205
69.6047,2.204
69.6252,2.2
69.6456,2.201
69.6661,2.207
69.6865,2.21
69.7069,2.213
69.7274,2.216
69.7478,2.217
69.7683,2.222
69.7887,2.223
69.8091,2.223
69.8296,2.225
69.85,2.225
69.8705,2.219
69.8909,2.226
69.9113,2.227
69.9318,2.227
69.9522,2.227
69.9727,2.225
69.9931,2.223
70.0135,2.224
70.034,2.22
70.0544,2.219
70.0749,2.218
70.0953,2.224
70.1158,2.226
70.1362,2.226
70.1566,2.226
70.1771,2.22
70.1975,2.222
70.218,2.22
70.2384,2.225
70.2588,2.222
70.2793,2.224
70.2997,2.22
70.3202,2.214
70.3406,2.212
70.361,2.206
70.3815,2.209
70.4019,2.205
70.4224,2.202
70.4428,2.201
70.4632,2.205
70.4837,2.208
70.5041,2.212
70.5246,2.218
70.545,2.217
70.5654,2.213
70.5859,2.214
70.6063,2.205
70.6268,2.202
70.6472,2.2
70.6676,2.196
70.6881,2.203
70.7085,2.201
70.729,2.202
70.7494,2.2
70.7699,2.198
70.7903,2.195
70.8107,2.188
70.8312,2.195
70.8516,2.193
70.8721,2.196
70.8925,2.192
70.9129,2.194
70.9334,2.2
70.9538,2.204
70.9743,2.207
70.9947,2.212
71.0151,2.213
71.0356,2.216
71.056,2.218
71.0765,2.215
71.0969,2.21
71.1173,2.223
71.1378,2.222
71.1582,2.221
71.1787,2.22
71.1991,2.211
71.2195,2.206
71.24,2.206
71.2604,2.204
71.2809,2.205
71.3013,2.202
71.3217,2.208
71.3422,2.201
71.3626,2.201
71.3831,2.197
71.4035,2.202
71.4239,2.205
71.4444,2.196
71.4648,2.196
71.4853,2.194
71.5057,2.188
71.5262,2.196
71.5466,2.19
71.567,2.193
71.5875,2.197
71.6079,2.206
71.6284,2.201
71.6488,2.205
71.6692,2.208
71.6897,2.207
71.7101,2.21
71.7306,2.218
71.751,2.221
71.7714,2.22
71.7919,2.216
71.8123,2.215
71.8328,2.213
71.8532,2.212
71.8736,2.207
71.8941,2.199
71.9145,2.19
71.935,2.177
71.9554,2.177
71.9758,2.171
71.9963,2.167
72.0167,2.171
72.0372,2.164
72.0576,2.164
72.078,2.169
72.0985,2.175
72.1189,2.182
72.1394,2.188
72.1598,2.189
72.1803,2.188
72.2007,2.195
72.2211,2.199
72.2416,2.199
72.262,2.197
72.2825,2.199
72.3029,2.208
72.3233,2.212
72.3438,2.21
72.3642,2.205
72.3847,2.206
72.4051,2.215
72.4255,2.213
72.446,2.218
72.4664,2.22
72.4869,2.215
72.5073,2.214
72.5277,2.208
72.5482,2.216
72.5686,2.218
72.5891,2.214
72.6095,2.209
72.6299,2.2
72.6504,2.197
72.6708,2.189
72.6913,2.184
72.7117,2.175
72.7321,2.173
72.7526,2.167
72.773,2.169
72.7935,2.166
72.8139,2.156
72.8343,2.152
72.8548,2.153
72.8752,2.162
72.8957,2.166
72.9161,2.171
72.9366,2.18
72.957,2.182
72.9774,2.182
72.9979,2.197
73.0183,2.2
73.0388,2.207
73.0592,2.21
73.0796,2.209
73.1001,2.211
73.1205,2.215
73.141,2.215
73.1614,2.211
73.1818,2.212
73.2023,2.207
73.2227,2.203
73.2432,2.198
73.2636,2.199
73.284,2.196
73.3045,2.193
73.3249,2.19
73.3454,2.193
73.3658,2.198
73.3862,2.201
73.4067,2.205
73.4271,2.202
73.4476,2.198
73.468,2.203
73.4884,2.209
73.5089,2.206
73.5293,2.202
73.5498,2.2
73.5702,2.196
73.5907,2.203
73.6111,2.205
73.6315,2.203
73.652,2.201
73.6724,2.195
73.6929,2.188
73.7133,2.189
73.7337,2.189
73.7542,2.184
73.7746,2.183
73.7951,2.181
73.8155,2.181
73.8359,2.183
73.8564,2.187
73.8768,2.186
73.8973,2.178
73.9177,2.175
73.9381,2.177
73.9586,2.179
73.979,2.179
73.9995,2.181
74.0199,2.175
74.0403,2.18
74.0608,2.189
74.0812,2.194
74.1017,2.199
74.1221,2.203
74.1425,2.208
74.163,2.21
74.1834,2.211
74.2039,2.216
74.2243,2.219
74.2447,2.218
74.2652,2.221
74.2856,2.221
74.3061,2.22
74.3265,2.222
74.347,2.222
74.3674,2.224
74.3878,2.216
74.4083,2.22
74.4287,2.224
74.4492,2.223
74.4696,2.218
74.49,2.221
74.5105,2.223
74.5309,2.225
74.5514,2.227
74.5718,2.222
74.5922,2.223
74.6127,2.224
74.6331,2.225
74.6536,2.223
74.674,2.218
74.6944,2.223
74.7149,2.221
74.7353,2.222
74.7558,2.224
74.7762,2.224
74.7966,2.223
74.8171,2.216
74.8375,2.215
74.858,2.214
74.8784,2.204
74.8988,2.204
74.9193,2.204
74.9397,2.202
74.9602,2.198
74.9806,2.201
75.0011,2.204
75.0215,2.199
75.0419,2.201
75.0624,2.195
75.0828,2.197
75.1033,2.2
75.1237,2.199
75.1441,2.199
75.1646,2.2
75.185,2.206
75.2055,2.206
75.2259,2.215
75.2463,2.212
75.2668,2.207
75.2872,2.202
75.3077,2.2
75.3281,2.204
75.3485,2.2
75.369,2.198
75.3894,2.196
75.4099,2.195
75.4303,2.198
75.4507,2.187
75.4712,2.188
75.4916,2.191
75.5121,2.193
75.5325,2.193
75.5529,2.186
75.5734,2.193
75.5938,2.194
75.6143,2.194
75.6347,2.198
75.6551,2.206
75.6756,2.21
75.696,2.21
75.7165,2.213
75.7369,2.21
75.7574,2.21
75.7778,2.203
75.7982,2.205
75.8187,2.204
75.8391,2.202
75.8596,2.196
75.88,2.192
75.9004,2.183
75.9209,2.178
75.9413,2.167
75.9618,2.17
75.9822,2.167
76.0026,2.171
76.0231,2.17
76.0435,2.168
76.064,2.178
76.0844,2.174
76.1048,2.177
76.1253,2.185
76.1457,2.185
76.1662,2.182
76.1866,2.18
76.207,2.178
76.2275,2.178
76.2479,2.18
76.2684,2.176
76.2888,2.184
76.3092,2.184
76.3297,2.186
76.3501,2.186
76.3706,2.192
76.391,2.194
76.4115,2.198
76.4319,2.195
76.4523,2.195
76.4728,2.196
76.4932,2.198
76.5137,2.198
76.5341,2.197
76.5545,2.198
76.575,2.188
76.5954,2.191
76.6159,2.194
76.6363,2.188
76.6567,2.189
76.6772,2.186
76.6976,2.186
76.7181,2.187
76.7385,2.186
76.7589,2.184
76.7794,2.189
76.7998,2.19
76.8203,2.197
76.8407,2.201
76.8611,2.203
76.8816,2.2
76.902,2.199
76.9225,2.193
76.9429,2.197
76.9633,2.195
76.9838,2.196
77.0042,2.197
77.0247,2.197
77.0451,2.2
77.0656,2.201
77.086,2.203
77.1064,2.206
77.1269,2.206
77.1473,2.2
77.1678,2.198
77.1882,2.196
77.2086,2.191
77.2291,2.195
77.2495,2.197
77.27,2.198
77.2904,2.202
77.3108,2.202
77.3313,2.201
77.3517,2.201
77.3722,2.206
77.3926,2.206
77.413,2.202
77.4335,2.209
77.4539,2.209
77.4744,2.215
77.4948,2.219
77.5152,2.219
77.5357,2.221
77.5561,2.216
77.5766,2.209
77.597,2.205
77.6174,2.201
77.6379,2.192
77.6583,2.195
77.6788,2.186
77.6992,2.19
77.7196,2.188
77.7401,2.188
77.7605,2.187
77.781,2.191
77.8014,2.191
77.8219,2.194
77.8423,2.199
77.8627,2.19
77.8832,2.187
77.9036,2.19
77.9241,2.195
77.9445,2.191
77.9649,2.193
77.9854,2.188
78.0058,2.187
78.0263,2.189
78.0467,2.187
78.0671,2.183
78.0876,2.184
78.108,2.182
78.1285,2.182
78.1489,2.179
78.1693,2.176
78.1898,2.187
78.2102,2.187
78.2307,2.19
78.2511,2.187
78.2715,2.192
78.292,2.195
78.3124,2.193
78.3329,2.192
78.3533,2.184
78.3737,2.19
78.3942,2.191
78.4146,2.188
78.4351,2.187
78.4555,2.192
78.476,2.193
78.4964,2.197
78.5168,2.198
78.5373,2.197
78.5577,2.193
78.5782,2.193
78.5986,2.19
78.619,2.192
78.6395,2.19
78.6599,2.198
78.6804,2.199
78.7008,2.194
78.7212,2.186
78.7417,2.189
78.7621,2.195
78.7826,2.195
78.803,2.191
78.8234,2.19
78.8439,2.188
78.8643,2.189
78.8848,2.189
78.9052,2.191
78.9256,2.195
78.9461,2.197
78.9665,2.198
78.987,2.196
79.0074,2.19
79.0278,2.185
79.0483,2.185
79.0687,2.186
79.0892,2.184
79.1096,2.184
79.13,2.184
79.1505,2.182
79.1709,2.178
79.1914,2.176
79.2118,2.178
79.2323,2.184
79.2527,2.19
79.2731,2.186
79.2936,2.183
79.314,2.186
79.3345,2.187
79.3549,2.187
79.3753,2.188
79.3958,2.194
79.4162,2.189
79.4367,2.186
79.4571,2.186
79.4775,2.183
79.498,2.178
79.5184,2.18
79.5389,2.178
79.5593,2.172
79.5797,2.169
79.6002,2.174
79.6206,2.172
79.6411,2.161
79.6615,2.161
79.6819,2.16
79.7024,2.165
79.7228,2.162
79.7433,2.161
79.7637,2.157
79.7841,2.156
79.8046,2.157
79.825,2.154
79.8455,2.154
79.8659,2.152
79.8864,2.156
79.9068,2.15
79.9272,2.152
79.9477,2.156
79.9681,2.156
79.9886,2.156